#GEFID= 1, 1, 0
#PARENT= imbroA_registratie_cpt.gef, 1.00, Sondeerlengte, 1
#COLUMN= 4
#COLUMNINFO= 1, s, Tijd, 12
#COLUMNINFO= 2, MPa, Conusweerstand qc, 2
#COLUMNINFO= 3, MPa, Waterspanning u1, 5
#COLUMNINFO= 4, MPa, Waterspanning u2, 6
#REPORTDATAFORMAT = F5.1 F3.3 F2.3 F2.3 
#COLUMNVOID= 1, -99999.000
#COLUMNVOID= 2, -99999.000
#COLUMNVOID= 3, -99999.00000
#COLUMNVOID= 4, -99999.00000
#COMPANYID= Fugro Ingenieursbureau B.V., 2711 4147, 31
#DATAFORMAT= ASCII
#FILEDATE= 2011,09,07
#FILEOWNER= BOSCHG 
#LASTSCAN= 412
#MEASUREMENTTEXT= 1, 2711 4147, opdrachtgever
#MEASUREMENTTEXT= 4, F7.5CKEH2W1-2/B P10-1701-1713, conus type en serienummer
#MEASUREMENTTEXT= 5, REO73/JSL/MW, sondeerapparaat/operator
#MEASUREMENTTEXT= 6, NEN 5140 klasse  2, gevolgde norm
#MEASUREMENTTEXT= 9, maaiveld, vast horizontaal vlak
#MEASUREMENTVAR= 1, 1500, mm2, Nom. opp. conuspunt
#MEASUREMENTVAR= 2, 19956, mm2, Nom. opp. wrijvingsmantel
#MEASUREMENTVAR= 3, 0.58, -, Netto oppervlaktequotient van de conuspunt
#MEASUREMENTVAR= 4, 1.00, -, Netto oppervlaktequotient van de kleefmantel
#MEASUREMENTVAR= 5, 138, mm, Afstand conus tot midden kleefmantel
#MEASUREMENTVAR= 12, 0, -, electrische sondering
#MEASUREMENTVAR= 13, 0.00, m, voorgegraven diepte
#REPORTCODE= GEF-DISS-Report,1,0,0
#PROJECTID= CPT, 2110-0176-001                 
#STARTDATE= 2011,09,01
#STARTTIME= 13,59,27
#TESTID= RIVZ03
#XYID= 31000, 105919.4, 526089.3,  0.03,  0.03
#ZID= 31000, 1.00,  0.03
#EOH=
    0.00     26.348    0.39599    0.27713
    1.00     24.459    0.38336    0.28727
    2.00     23.166    0.37292    0.29505
    3.00     22.537    0.36500    0.30064
    4.00     22.068    0.35861    0.30465
    5.00     21.715    0.35338    0.30754
    6.00     21.403    0.34911    0.30961
    7.00     21.159    0.34549    0.31124
    8.00     20.962    0.34249    0.31240
    9.00     20.805    0.33987    0.31336
   10.00     20.667    0.33754    0.31403
   11.00     20.551    0.33547    0.31454
   12.00     20.447    0.33359    0.31495
   13.00     20.360    0.33192    0.31520
   14.00     20.280    0.33034    0.31540
   15.00     20.212    0.32889    0.31560
   16.00     20.147    0.32742    0.31572
   17.00     20.086    0.32611    0.31578
   18.00     20.031    0.32484    0.31581
   19.00     19.980    0.32370    0.31580
   20.00     19.933    0.32261    0.31577
   21.00     19.887    0.32158    0.31580
   22.00     19.843    0.32054    0.31576
   23.00     19.802    0.31961    0.31566
   24.00     19.764    0.31869    0.31563
   25.00     19.727    0.31780    0.31557
   26.00     19.693    0.31697    0.31553
   27.00     19.657    0.31610    0.31546
   28.00     19.624    0.31532    0.31537
   29.00     19.593    0.31457    0.31530
   30.00     19.564    0.31380    0.31513
   31.00     19.533    0.31314    0.31503
   32.00     19.505    0.31246    0.31489
   33.00     19.476    0.31176    0.31483
   34.00     19.451    0.31111    0.31475
   35.00     19.424    0.31049    0.31460
   36.00     19.399    0.30989    0.31450
   37.00     19.373    0.30929    0.31437
   38.00     19.353    0.30870    0.31422
   39.00     19.330    0.30819    0.31412
   40.00     19.306    0.30764    0.31399
   41.00     19.283    0.30710    0.31394
   42.00     19.263    0.30660    0.31381
   43.00     19.240    0.30615    0.31368
   44.00     19.221    0.30567    0.31350
   45.00     19.200    0.30522    0.31338
   46.00     19.181    0.30476    0.31327
   47.00     19.162    0.30432    0.31322
   48.00     19.143    0.30391    0.31305
   49.00     19.123    0.30352    0.31296
   50.00     19.107    0.30311    0.31274
   51.00     19.088    0.30273    0.31265
   52.00     19.072    0.30235    0.31252
   53.00     19.054    0.30200    0.31240
   54.00     19.037    0.30165    0.31233
   55.00     19.021    0.30131    0.31216
   56.00     19.004    0.30099    0.31201
   57.00     18.988    0.30069    0.31186
   58.00     18.974    0.30037    0.31178
   59.00     18.958    0.30012    0.31165
   60.00     18.944    0.29982    0.31154
   61.00     18.929    0.29953    0.31144
   62.00     18.915    0.29931    0.31133
   63.00     18.900    0.29903    0.31117
   64.00     18.887    0.29879    0.31110
   65.00     18.873    0.29855    0.31094
   66.00     18.861    0.29833    0.31089
   66.88     18.846    0.29809    0.31069
   68.00     18.833    0.29787    0.31065
   69.00     18.819    0.29770    0.31048
   69.88     18.807    0.29744    0.31039
   71.00     18.795    0.29726    0.31028
   72.00     18.781    0.29705    0.31013
   73.00     18.770    0.29687    0.31008
   74.00     18.757    0.29669    0.30993
   75.00     18.746    0.29654    0.30983
   76.00     18.733    0.29638    0.30973
   77.00     18.723    0.29622    0.30960
   78.00     18.711    0.29608    0.30955
   79.00     18.700    0.29591    0.30943
   80.00     18.690    0.29580    0.30937
   81.00     18.679    0.29561    0.30922
   82.00     18.670    0.29552    0.30914
   83.00     18.659    0.29539    0.30905
   84.00     18.648    0.29525    0.30894
   85.00     18.636    0.29514    0.30885
   86.00     18.627    0.29503    0.30875
   87.00     18.616    0.29497    0.30866
   88.00     18.606    0.29483    0.30856
   89.00     18.597    0.29475    0.30845
   90.00     18.587    0.29469    0.30835
   91.00     18.578    0.29461    0.30828
   92.00     18.568    0.29452    0.30821
   93.00     18.558    0.29445    0.30809
   94.00     18.548    0.29435    0.30798
   95.00     18.540    0.29432    0.30790
   96.00     18.530    0.29427    0.30781
   97.00     18.520    0.29421    0.30775
   98.00     18.513    0.29417    0.30762
   99.00     18.504    0.29413    0.30754
  100.00     18.496    0.29407    0.30745
  101.00     18.486    0.29403    0.30737
  102.00     18.479    0.29402    0.30729
  103.00     18.469    0.29397    0.30723
  104.00     18.462    0.29396    0.30716
  105.00     18.453    0.29394    0.30702
  106.00     18.445    0.29391    0.30702
  107.00     18.437    0.29386    0.30692
  108.00     18.430    0.29385    0.30683
  109.00     18.424    0.29386    0.30673
  110.00     18.414    0.29385    0.30668
  111.00     18.405    0.29386    0.30657
  112.00     18.398    0.29385    0.30651
  113.00     18.390    0.29386    0.30651
  114.00     18.384    0.29386    0.30640
  115.00     18.375    0.29386    0.30633
  116.00     18.369    0.29389    0.30620
  117.00     18.362    0.29390    0.30614
  118.00     18.355    0.29391    0.30608
  119.00     18.347    0.29396    0.30600
  120.00     18.340    0.29394    0.30596
  121.00     18.334    0.29396    0.30588
  122.00     18.326    0.29401    0.30579
  123.00     18.318    0.29407    0.30572
  124.00     18.313    0.29409    0.30571
  125.00     18.305    0.29413    0.30562
  126.00     18.299    0.29414    0.30555
  127.00     18.293    0.29420    0.30551
  128.00     18.286    0.29424    0.30545
  129.00     18.278    0.29427    0.30532
  130.00     18.271    0.29430    0.30527
  131.00     18.266    0.29435    0.30525
  132.00     18.259    0.29439    0.30512
  133.00     18.253    0.29448    0.30507
  134.00     18.246    0.29451    0.30501
  135.00     18.241    0.29452    0.30495
  136.00     18.234    0.29461    0.30492
  137.00     18.227    0.29464    0.30483
  138.00     18.223    0.29471    0.30476
  139.00     18.217    0.29476    0.30474
  140.00     18.211    0.29484    0.30469
  141.00     18.204    0.29492    0.30461
  141.88     18.198    0.29495    0.30459
  143.00     18.192    0.29499    0.30449
  144.00     18.187    0.29505    0.30439
  145.00     18.182    0.29514    0.30438
  146.00     18.174    0.29519    0.30431
  147.00     18.170    0.29525    0.30428
  148.00     18.163    0.29532    0.30419
  149.00     18.157    0.29537    0.30417
  149.88     18.151    0.29545    0.30408
  151.00     18.147    0.29550    0.30406
  152.00     18.140    0.29557    0.30396
  153.00     18.136    0.29567    0.30397
  154.00     18.130    0.29576    0.30391
  155.00     18.124    0.29579    0.30383
  155.88     18.120    0.29586    0.30377
  157.00     18.114    0.29594    0.30375
  158.00     18.109    0.29600    0.30366
  159.00     18.104    0.29608    0.30364
  160.00     18.098    0.29616    0.30360
  161.00     18.093    0.29621    0.30352
  161.88     18.088    0.29627    0.30347
  163.00     18.084    0.29637    0.30347
  164.00     18.078    0.29642    0.30340
  164.88     18.073    0.29652    0.30334
  166.00     18.069    0.29657    0.30325
  167.00     18.063    0.29665    0.30323
  167.88     18.058    0.29673    0.30318
  169.00     18.053    0.29680    0.30313
  170.00     18.048    0.29687    0.30311
  171.00     18.042    0.29698    0.30304
  172.00     18.038    0.29706    0.30304
  173.00     18.035    0.29712    0.30293
  174.00     18.028    0.29721    0.30293
  175.00     18.023    0.29728    0.30290
  175.88     18.019    0.29739    0.30282
  177.00     18.014    0.29745    0.30278
  178.00     18.011    0.29754    0.30277
  178.88     18.005    0.29760    0.30268
  180.00     18.002    0.29770    0.30265
  181.00     17.996    0.29777    0.30266
  182.00     17.993    0.29789    0.30264
  183.00     17.989    0.29799    0.30256
  184.00     17.982    0.29802    0.30249
  184.88     17.980    0.29812    0.30250
  186.00     17.974    0.29821    0.30242
  187.00     17.970    0.29828    0.30246
  188.00     17.965    0.29839    0.30237
  189.00     17.961    0.29845    0.30229
  190.00     17.955    0.29850    0.30227
  190.88     17.952    0.29858    0.30225
  192.00     17.948    0.29870    0.30216
  193.00     17.944    0.29876    0.30215
  194.00     17.938    0.29882    0.30209
  195.00     17.934    0.29893    0.30209
  196.00     17.930    0.29900    0.30204
  197.00     17.925    0.29908    0.30203
  198.00     17.923    0.29914    0.30198
  199.00     17.917    0.29925    0.30197
  200.00     17.916    0.29933    0.30190
  201.00     17.910    0.29943    0.30188
  202.00     17.907    0.29952    0.30185
  203.00     17.902    0.29960    0.30180
  204.00     17.898    0.29967    0.30176
  205.00     17.894    0.29976    0.30171
  206.00     17.890    0.29983    0.30170
  206.88     17.884    0.29995    0.30161
  208.00     17.883    0.29998    0.30168
  208.88     17.878    0.30008    0.30162
  210.00     17.874    0.30017    0.30156
  211.00     17.871    0.30023    0.30151
  212.00     17.867    0.30029    0.30153
  213.00     17.862    0.30040    0.30143
  213.88     17.859    0.30049    0.30148
  215.00     17.856    0.30054    0.30141
  216.00     17.853    0.30062    0.30133
  217.00     17.848    0.30069    0.30137
  218.00     17.844    0.30079    0.30133
  219.00     17.840    0.30085    0.30127
  220.00     17.835    0.30091    0.30124
  221.00     17.833    0.30102    0.30123
  222.00     17.829    0.30109    0.30121
  223.00     17.826    0.30113    0.30120
  224.00     17.822    0.30122    0.30111
  225.00     17.819    0.30129    0.30110
  226.00     17.813    0.30138    0.30106
  227.00     17.811    0.30147    0.30105
  228.00     17.807    0.30151    0.30101
  229.00     17.803    0.30158    0.30096
  230.00     17.800    0.30165    0.30098
  231.00     17.796    0.30174    0.30095
  232.00     17.794    0.30181    0.30090
  233.00     17.790    0.30186    0.30084
  234.00     17.788    0.30195    0.30082
  235.00     17.783    0.30201    0.30080
  236.00     17.780    0.30209    0.30079
  237.00     17.775    0.30214    0.30079
  238.00     17.773    0.30224    0.30071
  239.00     17.769    0.30230    0.30066
  240.00     17.764    0.30235    0.30066
  241.00     17.761    0.30244    0.30065
  241.88     17.759    0.30251    0.30063
  243.00     17.754    0.30258    0.30062
  243.88     17.752    0.30266    0.30060
  245.00     17.748    0.30272    0.30053
  246.00     17.745    0.30277    0.30048
  247.00     17.742    0.30285    0.30048
  248.00     17.739    0.30291    0.30046
  249.00     17.734    0.30296    0.30039
  250.00     17.732    0.30303    0.30039
  251.00     17.732    0.30310    0.30034
  252.00     17.725    0.30314    0.30035
  253.00     17.725    0.30322    0.30036
  254.00     17.719    0.30327    0.30034
  255.00     17.719    0.30333    0.30034
  256.00     17.713    0.30339    0.30024
  257.00     17.711    0.30348    0.30022
  258.00     17.704    0.30352    0.30026
  259.00     17.704    0.30359    0.30022
  260.00     17.701    0.30364    0.30014
  261.00     17.697    0.30370    0.30012
  262.00     17.693    0.30377    0.30011
  263.00     17.693    0.30384    0.30010
  264.00     17.688    0.30387    0.30007
  265.00     17.686    0.30393    0.30005
  266.00     17.683    0.30401    0.30001
  267.00     17.678    0.30409    0.30001
  267.88     17.674    0.30410    0.30001
  269.00     17.673    0.30414    0.29998
  270.00     17.671    0.30420    0.29993
  271.00     17.668    0.30426    0.29991
  272.00     17.665    0.30435    0.29990
  273.00     17.663    0.30442    0.29990
  274.00     17.659    0.30447    0.29986
  275.00     17.655    0.30450    0.29984
  276.00     17.651    0.30457    0.29980
  277.00     17.648    0.30461    0.29976
  278.00     17.647    0.30465    0.29973
  279.00     17.645    0.30470    0.29976
  280.00     17.638    0.30478    0.29972
  280.88     17.639    0.30481    0.29971
  282.00     17.635    0.30487    0.29965
  283.00     17.633    0.30494    0.29970
  283.88     17.628    0.30499    0.29968
  285.00     17.626    0.30504    0.29966
  286.00     17.625    0.30506    0.29959
  287.00     17.619    0.30513    0.29959
  288.00     17.615    0.30521    0.29959
  289.00     17.614    0.30525    0.29959
  290.00     17.611    0.30532    0.29957
  291.00     17.607    0.30534    0.29955
  292.00     17.605    0.30537    0.29952
  293.00     17.602    0.30545    0.29951
  294.00     17.600    0.30547    0.29943
  295.00     17.599    0.30554    0.29944
  296.00     17.596    0.30561    0.29942
  296.88     17.590    0.30563    0.29940
  298.00     17.589    0.30568    0.29940
  298.88     17.585    0.30570    0.29938
  300.00     17.587    0.30578    0.29935
  301.00     17.582    0.30584    0.29930
  302.00     17.580    0.30587    0.29929
  302.88     17.575    0.30592    0.29931
  304.00     17.574    0.30595    0.29926
  305.00     17.572    0.30602    0.29924
  305.88     17.570    0.30606    0.29928
  307.00     17.566    0.30612    0.29922
  308.00     17.564    0.30617    0.29917
  308.88     17.560    0.30618    0.29915
  310.00     17.556    0.30624    0.29913
  311.00     17.556    0.30629    0.29915
  312.00     17.554    0.30632    0.29912
  313.00     17.551    0.30637    0.29915
  314.00     17.548    0.30645    0.29908
  314.88     17.544    0.30646    0.29909
  316.00     17.544    0.30652    0.29906
  317.00     17.540    0.30653    0.29904
  318.00     17.539    0.30660    0.29904
  319.00     17.536    0.30662    0.29902
  320.00     17.533    0.30668    0.29897
  320.88     17.528    0.30671    0.29894
  322.00     17.530    0.30676    0.29894
  323.00     17.526    0.30677    0.29895
  323.88     17.522    0.30680    0.29888
  325.00     17.519    0.30686    0.29890
  326.00     17.518    0.30689    0.29887
  326.88     17.516    0.30694    0.29888
  328.00     17.514    0.30697    0.29885
  329.00     17.512    0.30701    0.29883
  329.88     17.508    0.30706    0.29883
  331.00     17.506    0.30707    0.29884
  332.00     17.500    0.30714    0.29880
  333.00     17.501    0.30718    0.29878
  334.00     17.501    0.30719    0.29878
  335.00     17.494    0.30723    0.29874
  335.88     17.494    0.30730    0.29870
  337.00     17.492    0.30731    0.29873
  338.00     17.490    0.30735    0.29874
  339.00     17.484    0.30742    0.29867
  340.00     17.486    0.30744    0.29862
  340.88     17.480    0.30747    0.29868
  342.00     17.478    0.30753    0.29865
  343.00     17.480    0.30755    0.29863
  343.88     17.475    0.30760    0.29862
  345.00     17.474    0.30765    0.29858
  346.00     17.471    0.30768    0.29857
  347.00     17.466    0.30770    0.29856
  348.00     17.467    0.30773    0.29851
  349.00     17.464    0.30775    0.29853
  349.88     17.462    0.30779    0.29847
  351.00     17.460    0.30784    0.29853
  352.00     17.456    0.30789    0.29852
  352.88     17.453    0.30792    0.29849
  354.00     17.453    0.30791    0.29844
  355.00     17.448    0.30799    0.29850
  356.00     17.448    0.30801    0.29847
  357.00     17.443    0.30806    0.29843
  358.00     17.443    0.30811    0.29844
  359.00     17.439    0.30811    0.29840
  359.88     17.441    0.30817    0.29842
  361.00     17.434    0.30817    0.29833
  362.00     17.433    0.30821    0.29839
  362.88     17.432    0.30826    0.29838
  364.00     17.431    0.30828    0.29835
  365.00     17.428    0.30831    0.29835
  365.88     17.428    0.30834    0.29831
  367.00     17.425    0.30839    0.29832
  368.00     17.422    0.30842    0.29832
  369.00     17.420    0.30845    0.29824
  370.00     17.418    0.30846    0.29829
  371.00     17.411    0.30852    0.29827
  372.00     17.412    0.30855    0.29825
  372.88     17.413    0.30855    0.29820
  374.00     17.408    0.30859    0.29814
  375.00     17.406    0.30861    0.29821
  376.00     17.405    0.30865    0.29817
  377.00     17.402    0.30869    0.29814
  378.00     17.401    0.30869    0.29817
  378.88     17.399    0.30872    0.29816
  380.00     17.395    0.30878    0.29816
  381.00     17.393    0.30877    0.29813
  381.88     17.392    0.30881    0.29816
  383.00     17.391    0.30884    0.29810
  384.00     17.385    0.30887    0.29808
  384.88     17.383    0.30893    0.29809
  386.00     17.381    0.30893    0.29806
  387.00     17.379    0.30899    0.29803
  387.88     17.376    0.30897    0.29805
  389.00     17.376    0.30905    0.29803
  390.00     17.376    0.30905    0.29800
  390.88     17.374    0.30908    0.29801
  392.00     17.371    0.30908    0.29802
  393.00     17.368    0.30911    0.29800
  393.88     17.368    0.30915    0.29802
  394.88     17.367    0.30917    0.29796
  396.00     17.363    0.30921    0.29798
  397.00     17.361    0.30925    0.29792
  397.88     17.357    0.30927    0.29790
  399.00     17.357    0.30928    0.29790
  400.00     17.357    0.30931    0.29788
  400.88     17.351    0.30937    0.29788
  402.00     17.351    0.30934    0.29787
  403.00     17.351    0.30939    0.29789
  404.00     17.349    0.30940    0.29785
  404.88     17.347    0.30941    0.29781
  406.00     17.343    0.30945    0.29782
  407.00     17.341    0.30947    0.29785
  407.88     17.339    0.30950    0.29780
  409.00     17.337    0.30953    0.29784
  410.00     17.337    0.30955    0.29778
  411.00     17.334    0.30959    0.29780
